Text Inputs : Specimen label,"2.165"
General : Start Date,1/28/2011 12:46 PM
General : End Date,1/28/2011 12:48 PM
Maximum Compressive load : Maximum Compressive load,9.57026,kgf
Maximum Compressive load : Compressive stress at Maximum Compressive load,1.00370,MPa

Time,Extension,Load
(sec),(mm),(N)
0.00000,-0.00007,-0.01589
0.00180,-0.00007,-0.01579
0.10000,-0.00007,-0.00149
0.20000,-0.00011,-0.00090
0.30000,-0.00025,-0.00189
0.40000,-0.00049,0.00294
0.50000,-0.00073,0.00074
0.60000,-0.00095,0.00082
0.70000,-0.00114,-0.00063
0.80000,-0.00133,-0.00132
0.90000,-0.00150,-0.00288
1.00000,-0.00168,0.00163
1.10000,-0.00184,0.00133
1.20000,-0.00201,-0.00205
1.30000,-0.00218,-0.00131
1.40000,-0.00234,0.00073
1.50000,-0.00250,-0.00300
1.60000,-0.00267,-0.00099
1.70000,-0.00284,-0.00051
1.80000,-0.00301,-0.00492
1.90000,-0.00317,-0.00356
2.00000,-0.00334,0.00114
2.10000,-0.00351,0.00018
2.20000,-0.00368,-0.00077
2.30000,-0.00384,0.00009
2.40000,-0.00401,-0.00075
2.50000,-0.00417,-0.00248
2.60000,-0.00433,-0.00355
2.70000,-0.00451,-0.00537
2.80000,-0.00467,-0.00194
2.90000,-0.00484,-0.00266
3.00000,-0.00501,-0.00122
3.10000,-0.00518,0.00078
3.20000,-0.00535,-0.00089
3.30000,-0.00551,0.00065
3.40000,-0.00568,-0.00340
3.50000,-0.00585,-0.00283
3.60000,-0.00602,-0.00573
3.70000,-0.00619,-0.00479
3.80000,-0.00635,0.00031
3.90000,-0.00652,-0.00363
4.00000,-0.00669,-0.00121
4.10000,-0.00686,-0.00085
4.20000,-0.00703,-0.00103
4.30000,-0.00720,-0.00100
4.40000,-0.00737,-0.00224
4.50000,-0.00753,-0.00813
4.60000,-0.00769,-0.00255
4.70000,-0.00786,-0.00003
4.80000,-0.00803,-0.00292
4.90000,-0.00819,-0.00010
5.00000,-0.00836,0.00231
5.10000,-0.00853,-0.00323
5.20000,-0.00870,0.00050
5.30000,-0.00887,-0.00533
5.40000,-0.00904,-0.00623
5.50000,-0.00920,-0.00483
5.60000,-0.00937,-0.00171
5.70000,-0.00953,0.00224
5.80000,-0.00970,-0.00184
5.90000,-0.00987,-0.00249
6.00000,-0.01004,-0.00236
6.10000,-0.01020,-0.00068
6.20000,-0.01037,-0.00053
6.30000,-0.01054,-0.00850
6.40000,-0.01070,-0.00192
6.50000,-0.01087,-0.00098
6.60000,-0.01103,-0.00042
6.70000,-0.01120,-0.00074
6.80000,-0.01136,0.00023
6.90000,-0.01153,0.00009
7.00000,-0.01170,-0.00346
7.10000,-0.01186,0.00002
7.20000,-0.01203,-0.00398
7.30000,-0.01219,-0.00659
7.40000,-0.01236,0.00042
7.50000,-0.01253,-0.00111
7.60000,-0.01270,0.00008
7.70000,-0.01287,-0.00178
7.80000,-0.01304,0.00362
7.90000,-0.01320,-0.00372
8.00000,-0.01337,-0.00373
8.10000,-0.01353,-0.00791
8.20000,-0.01370,-0.00087
8.30000,-0.01386,0.00048
8.40000,-0.01403,0.00208
8.50000,-0.01419,0.00074
8.60000,-0.01436,-0.00219
8.70000,-0.01452,-0.00621
8.80000,-0.01469,0.00149
8.90000,-0.01486,-0.00292
9.00000,-0.01502,-0.00761
9.10000,-0.01519,-0.00282
9.20000,-0.01535,0.00012
9.30000,-0.01552,-0.00273
9.40000,-0.01569,-0.00375
9.50000,-0.01585,0.00000
9.60000,-0.01602,-0.00209
9.70000,-0.01618,-0.00369
9.80000,-0.01635,0.00061
9.90000,-0.01652,-0.00698
10.00000,-0.01668,-0.00167
10.10000,-0.01686,0.00190
10.20000,-0.01702,-0.00389
10.30000,-0.01719,-0.00259
10.40000,-0.01735,-0.00155
10.50000,-0.01752,-0.00210
10.60000,-0.01769,0.00089
10.70000,-0.01785,-0.00200
10.80000,-0.01802,-0.00763
10.90000,-0.01818,-0.00407
11.00000,-0.01835,0.00107
11.10000,-0.01852,-0.00277
11.20000,-0.01868,0.00036
11.30000,-0.01886,0.00076
11.40000,-0.01902,-0.00059
11.50000,-0.01919,-0.00079
11.60000,-0.01936,0.00015
11.70000,-0.01952,-0.00635
11.80000,-0.01969,-0.00275
11.90000,-0.01985,0.00081
12.00000,-0.02002,-0.00486
12.10000,-0.02018,-0.00330
12.20000,-0.02035,-0.00134
12.30000,-0.02052,-0.00103
12.40000,-0.02069,-0.00311
12.50000,-0.02086,-0.00473
12.60000,-0.02102,-0.00888
12.70000,-0.02120,-0.00352
12.80000,-0.02136,-0.00484
12.90000,-0.02152,-0.00093
13.00000,-0.02169,-0.00022
13.10000,-0.02185,-0.00293
13.20000,-0.02202,0.00179
13.30000,-0.02219,-0.00274
13.40000,-0.02235,-0.00558
13.50000,-0.02252,-0.00238
13.60000,-0.02269,-0.00290
13.70000,-0.02286,-0.00066
13.80000,-0.02302,-0.00443
13.90000,-0.02320,-0.00063
14.00000,-0.02336,-0.00342
14.10000,-0.02352,-0.00032
14.20000,-0.02369,-0.00481
14.30000,-0.02385,-0.00267
14.40000,-0.02402,-0.00373
14.50000,-0.02419,-0.00483
14.60000,-0.02436,0.00102
14.70000,-0.02452,-0.00122
14.80000,-0.02469,0.00109
14.90000,-0.02486,-0.00304
15.00000,-0.02503,-0.00088
15.10000,-0.02520,-0.00019
15.20000,-0.02536,-0.00290
15.30000,-0.02553,-0.00504
15.40000,-0.02569,-0.00067
15.50000,-0.02585,0.00153
15.60000,-0.02602,0.00279
15.70000,-0.02619,-0.00067
15.80000,-0.02636,-0.00191
15.90000,-0.02652,-0.00282
16.00000,-0.02669,-0.00254
16.10000,-0.02686,-0.00127
16.20000,-0.02703,-0.00422
16.30000,-0.02720,-0.00175
16.40000,-0.02736,-0.00002
16.50000,-0.02753,-0.00032
16.60000,-0.02769,-0.00215
16.70000,-0.02786,-0.00346
16.80000,-0.02803,0.00093
16.90000,-0.02819,-0.00074
17.00000,-0.02836,-0.00205
17.10000,-0.02853,0.00200
17.20000,-0.02869,0.00488
17.30000,-0.02886,-0.00589
17.40000,-0.02902,-0.00926
17.50000,-0.02920,-0.00364
17.60000,-0.02936,-0.00182
17.70000,-0.02952,0.00482
17.80000,-0.02969,-0.00390
17.90000,-0.02985,-0.00286
18.00000,-0.03002,-0.00844
18.10000,-0.03018,-0.00196
18.20000,-0.03036,0.00217
18.30000,-0.03052,-0.00430
18.40000,-0.03069,-0.00071
18.50000,-0.03086,-0.00266
18.60000,-0.03102,-0.00082
18.70000,-0.03119,-0.00020
18.80000,-0.03135,-0.00392
18.90000,-0.03152,-0.00805
19.00000,-0.03169,-0.00594
19.10000,-0.03185,0.00047
19.20000,-0.03202,-0.00390
19.30000,-0.03218,-0.00446
19.40000,-0.03235,-0.00147
19.50000,-0.03251,-0.00384
19.60000,-0.03268,0.00225
19.70000,-0.03285,-0.00632
19.80000,-0.03302,-0.00304
19.90000,-0.03319,-0.00157
20.00000,-0.03335,-0.00278
20.10000,-0.03352,-0.00216
20.20000,-0.03369,-0.00083
20.30000,-0.03385,-0.00176
20.40000,-0.03402,-0.00091
20.50000,-0.03418,0.00180
20.60000,-0.03435,-0.00489
20.70000,-0.03451,-0.00356
20.80000,-0.03468,-0.00208
20.90000,-0.03485,-0.00622
21.00000,-0.03501,-0.00134
21.10000,-0.03519,0.00099
21.20000,-0.03535,-0.00258
21.30000,-0.03552,-0.00428
21.40000,-0.03569,-0.00011
21.50000,-0.03585,-0.00386
21.60000,-0.03602,-0.00333
21.70000,-0.03618,-0.00237
21.80000,-0.03635,0.00319
21.90000,-0.03651,-0.00350
22.00000,-0.03668,0.00193
22.10000,-0.03685,-0.00044
22.20000,-0.03701,-0.00240
22.30000,-0.03719,-0.00077
22.40000,-0.03735,-0.00268
22.50000,-0.03752,-0.00362
22.60000,-0.03768,-0.00082
22.70000,-0.03785,0.00093
22.80000,-0.03802,-0.00091
22.90000,-0.03818,-0.00253
23.00000,-0.03835,-0.00223
23.10000,-0.03852,-0.00032
23.20000,-0.03869,0.00031
23.30000,-0.03886,-0.00301
23.40000,-0.03902,-0.00441
23.50000,-0.03920,0.00023
23.60000,-0.03936,0.00017
23.70000,-0.03953,-0.00224
23.80000,-0.03969,-0.00012
23.90000,-0.03986,-0.00260
24.00000,-0.04002,0.00024
24.10000,-0.04018,-0.00158
24.20000,-0.04035,-0.00282
24.30000,-0.04052,-0.00368
24.40000,-0.04069,-0.00037
24.50000,-0.04085,-0.00164
24.60000,-0.04102,-0.00382
24.70000,-0.04119,-0.00229
24.80000,-0.04135,-0.00333
24.90000,-0.04152,-0.00233
25.00000,-0.04169,-0.00086
25.10000,-0.04185,-0.00603
25.20000,-0.04202,-0.00267
25.30000,-0.04218,-0.00098
25.40000,-0.04235,-0.00180
25.50000,-0.04252,-0.00175
25.60000,-0.04269,0.00041
25.70000,-0.04286,0.00377
25.80000,-0.04302,0.00085
25.90000,-0.04319,-0.00124
26.00000,-0.04335,-0.00318
26.10000,-0.04352,-0.00497
26.20000,-0.04369,-0.00147
26.30000,-0.04385,0.00004
26.40000,-0.04402,0.00051
26.50000,-0.04418,0.00037
26.60000,-0.04435,-0.00525
26.70000,-0.04451,0.00085
26.80000,-0.04469,-0.00247
26.90000,-0.04486,-0.00130
27.00000,-0.04502,-0.00198
27.10000,-0.04519,0.00231
27.20000,-0.04535,-0.00083
27.30000,-0.04552,-0.00399
27.40000,-0.04569,-0.00241
27.50000,-0.04585,0.00115
27.60000,-0.04602,-0.00252
27.70000,-0.04618,-0.00121
27.80000,-0.04636,-0.00157
27.90000,-0.04652,-0.00209
28.00000,-0.04669,-0.00194
28.10000,-0.04686,-0.00057
28.20000,-0.04702,-0.00196
28.30000,-0.04719,0.00339
28.40000,-0.04735,0.00242
28.50000,-0.04752,-0.00005
28.60000,-0.04769,-0.00529
28.70000,-0.04785,-0.00258
28.80000,-0.04802,-0.00431
28.90000,-0.04818,-0.00235
29.00000,-0.04835,0.00145
29.10000,-0.04851,-0.00300
29.20000,-0.04869,0.00010
29.30000,-0.04885,-0.00107
29.40000,-0.04902,0.00069
29.50000,-0.04919,-0.00348
29.60000,-0.04935,-0.00151
29.70000,-0.04952,-0.00317
29.80000,-0.04968,0.00102
29.90000,-0.04986,-0.00152
30.00000,-0.05002,0.00038
30.10000,-0.05018,0.00051
30.20000,-0.05035,-0.00277
30.30000,-0.05052,-0.00099
30.40000,-0.05069,-0.00166
30.50000,-0.05085,-0.00387
30.60000,-0.05102,-0.00525
30.70000,-0.05119,-0.00379
30.80000,-0.05135,0.00174
30.90000,-0.05152,0.00234
31.00000,-0.05168,-0.00077
31.10000,-0.05185,-0.00012
31.20000,-0.05201,0.00069
31.30000,-0.05218,-0.00031
31.40000,-0.05235,-0.00045
31.50000,-0.05251,-0.00178
31.60000,-0.05269,-0.00123
31.70000,-0.05285,-0.00296
31.80000,-0.05302,0.00351
31.90000,-0.05319,-0.00458
32.00000,-0.05335,-0.00009
32.10000,-0.05352,-0.00363
32.20000,-0.05369,-0.00068
32.30000,-0.05386,-0.00385
32.40000,-0.05402,-0.00345
32.50000,-0.05418,0.00136
32.60000,-0.05435,0.00094
32.70000,-0.05451,0.00030
32.80000,-0.05469,0.00047
32.90000,-0.05485,0.00064
33.00000,-0.05502,-0.00077
33.10000,-0.05519,-0.00286
33.20000,-0.05536,-0.00179
33.30000,-0.05553,-0.00520
33.40000,-0.05569,0.00010
33.50000,-0.05586,0.00074
33.60000,-0.05602,-0.00034
33.70000,-0.05618,-0.00172
33.80000,-0.05635,-0.00300
33.90000,-0.05652,-0.00046
34.00000,-0.05669,0.00174
34.10000,-0.05685,-0.00101
34.20000,-0.05702,-0.00058
34.30000,-0.05719,0.00029
34.40000,-0.05735,-0.00079
34.50000,-0.05752,-0.00026
34.60000,-0.05769,-0.00427
34.70000,-0.05786,0.00090
34.80000,-0.05802,-0.00181
34.90000,-0.05819,0.00085
35.00000,-0.05836,-0.00489
35.10000,-0.05852,-0.00233
35.20000,-0.05869,0.00137
35.30000,-0.05886,-0.00211
35.40000,-0.05903,0.00323
35.50000,-0.05919,-0.00283
35.60000,-0.05935,0.00290
35.70000,-0.05953,-0.00128
35.80000,-0.05969,-0.00286
35.90000,-0.05986,-0.00467
36.00000,-0.06002,-0.00451
36.10000,-0.06019,0.00189
36.20000,-0.06036,-0.00161
36.30000,-0.06052,-0.00279
36.40000,-0.06069,0.00139
36.50000,-0.06086,0.00050
36.60000,-0.06103,0.00164
36.70000,-0.06119,0.00153
36.80000,-0.06136,-0.00303
36.90000,-0.06153,-0.00309
37.00000,-0.06169,-0.00073
37.10000,-0.06186,-0.00151
37.20000,-0.06202,-0.00289
37.30000,-0.06219,0.00190
37.40000,-0.06236,0.00003
37.50000,-0.06252,0.00184
37.60000,-0.06270,-0.00120
37.70000,-0.06286,-0.00268
37.80000,-0.06303,-0.00210
37.90000,-0.06319,-0.00354
38.00000,-0.06336,-0.00062
38.10000,-0.06353,-0.00272
38.20000,-0.06369,0.00260
38.30000,-0.06386,0.00033
38.40000,-0.06402,-0.00086
38.50000,-0.06419,-0.00522
38.60000,-0.06436,-0.00348
38.70000,-0.06452,-0.00281
38.80000,-0.06469,0.00273
38.90000,-0.06485,-0.00139
39.00000,-0.06503,-0.00297
39.10000,-0.06519,-0.00284
39.20000,-0.06535,0.00035
39.30000,-0.06552,0.00111
39.40000,-0.06568,-0.00292
39.50000,-0.06585,-0.00348
39.60000,-0.06602,-0.00507
39.70000,-0.06618,0.00010
39.80000,-0.06635,0.00240
39.90000,-0.06651,-0.00064
40.00000,-0.06668,-0.00209
40.10000,-0.06686,0.00222
40.20000,-0.06702,-0.00076
40.30000,-0.06718,-0.00312
40.40000,-0.06735,-0.00388
40.50000,-0.06752,-0.00224
40.60000,-0.06769,0.00100
40.70000,-0.06785,0.00061
40.80000,-0.06802,0.00255
40.90000,-0.06819,-0.00348
41.00000,-0.06835,-0.00064
41.10000,-0.06852,-0.00166
41.20000,-0.06868,-0.00128
41.30000,-0.06885,-0.00683
41.40000,-0.06902,-0.00657
41.50000,-0.06919,-0.00169
41.60000,-0.06935,0.00048
41.70000,-0.06952,0.00111
41.80000,-0.06968,-0.00104
41.90000,-0.06985,0.00031
42.00000,-0.07001,-0.00407
42.10000,-0.07018,-0.00152
42.20000,-0.07035,-0.00620
42.30000,-0.07051,-0.00488
42.40000,-0.07069,0.00086
42.50000,-0.07085,-0.00177
42.60000,-0.07102,-0.00035
42.70000,-0.07118,0.00036
42.80000,-0.07135,-0.00084
42.90000,-0.07152,-0.00303
43.00000,-0.07168,-0.00138
43.10000,-0.07185,-0.00337
43.20000,-0.07201,-0.00579
43.30000,-0.07218,-0.00130
43.40000,-0.07235,-0.00157
43.50000,-0.07251,-0.00174
43.60000,-0.07269,0.00035
43.70000,-0.07285,0.00206
43.80000,-0.07302,0.00020
43.90000,-0.07319,0.00072
44.00000,-0.07336,-0.00816
44.10000,-0.07352,-0.00512
44.20000,-0.07368,-0.00205
44.30000,-0.07385,0.00073
44.40000,-0.07401,-0.00195
44.50000,-0.07419,-0.00055
44.60000,-0.07435,0.00037
44.70000,-0.07452,-0.00288
44.80000,-0.07469,-0.00135
44.90000,-0.07486,-0.00803
45.00000,-0.07503,-0.00646
45.10000,-0.07519,-0.00380
45.20000,-0.07536,-0.00252
45.30000,-0.07552,-0.00486
45.40000,-0.07568,-0.00684
45.50000,-0.07585,-0.00468
45.60000,-0.07602,-0.00335
45.70000,-0.07619,-0.00609
45.80000,-0.07635,-0.00888
45.90000,-0.07651,-0.01031
46.00000,-0.07668,-0.00149
46.10000,-0.07685,-0.00402
46.20000,-0.07702,-0.00744
46.30000,-0.07718,-0.00299
46.40000,-0.07735,-0.00392
46.50000,-0.07752,-0.00528
46.60000,-0.07768,-0.00942
46.70000,-0.07785,-0.00671
46.80000,-0.07801,-0.00943
46.90000,-0.07818,-0.00269
47.00000,-0.07835,-0.00468
47.10000,-0.07851,-0.00181
47.20000,-0.07869,-0.00371
47.30000,-0.07885,-0.00378
47.40000,-0.07902,-0.00556
47.50000,-0.07919,-0.00763
47.60000,-0.07935,-0.01144
47.70000,-0.07952,-0.00865
47.80000,-0.07969,-0.00236
47.90000,-0.07985,-0.00398
48.00000,-0.08001,-0.00582
48.10000,-0.08018,-0.00619
48.20000,-0.08034,-0.00113
48.30000,-0.08051,-0.00507
48.40000,-0.08068,-0.00442
48.50000,-0.08085,-0.00899
48.60000,-0.08102,-0.00774
48.70000,-0.08119,-0.00260
48.80000,-0.08135,-0.00263
48.90000,-0.08152,-0.00471
49.00000,-0.08168,-0.00090
49.10000,-0.08186,-0.00075
49.20000,-0.08201,-0.00649
49.30000,-0.08219,-0.00428
49.40000,-0.08235,-0.00913
49.50000,-0.08251,-0.00575
49.60000,-0.08269,-0.00492
49.70000,-0.08285,-0.00231
49.80000,-0.08303,-0.00588
49.90000,-0.08318,-0.00499
50.00000,-0.08335,-0.00404
50.10000,-0.08351,-0.00560
50.20000,-0.08369,-0.00654
50.30000,-0.08384,-0.00629
50.40000,-0.08401,-0.00747
50.50000,-0.08418,-0.00507
50.60000,-0.08434,-0.00566
50.70000,-0.08451,-0.00376
50.80000,-0.08468,-0.00381
50.90000,-0.08485,-0.00425
51.00000,-0.08502,-0.00715
51.10000,-0.08518,-0.00424
51.20000,-0.08535,-0.00981
51.30000,-0.08551,-0.00716
51.40000,-0.08568,-0.00370
51.50000,-0.08585,-0.00398
51.60000,-0.08601,-0.00478
51.70000,-0.08619,-0.00376
51.80000,-0.08634,-0.00527
51.90000,-0.08651,-0.00774
52.00000,-0.08668,-0.00435
52.10000,-0.08685,-0.00793
52.20000,-0.08702,-0.00934
52.30000,-0.08718,-0.00791
52.40000,-0.08736,-0.00413
52.50000,-0.08752,-0.00200
52.60000,-0.08769,-0.00478
52.70000,-0.08784,0.00114
52.80000,-0.08801,-0.00477
52.90000,-0.08818,-0.00680
53.00000,-0.08835,-0.01042
53.10000,-0.08851,-0.00793
53.20000,-0.08868,-0.00443
53.30000,-0.08884,-0.00405
53.40000,-0.08902,-0.00664
53.50000,-0.08920,-0.00083
53.60000,-0.08935,-0.00326
53.70000,-0.08952,-0.00566
53.80000,-0.08968,-0.00624
53.90000,-0.08985,-0.01010
54.00000,-0.09001,-0.00645
54.10000,-0.09018,0.00242
54.20000,-0.09035,-0.00171
54.30000,-0.09051,-0.00477
54.40000,-0.09068,-0.00454
54.50000,-0.09085,0.00068
54.60000,-0.09103,-0.00695
54.70000,-0.09119,-0.00693
54.80000,-0.09136,-0.00826
54.90000,-0.09152,-0.00633
55.00000,-0.09169,-0.00522
55.10000,-0.09185,-0.00279
55.20000,-0.09201,-0.00206
55.30000,-0.09218,-0.00827
55.40000,-0.09234,-0.00398
55.50000,-0.09251,-0.00539
55.60000,-0.09268,-0.00657
55.70000,-0.09285,-0.00910
55.80000,-0.09303,-0.00732
55.90000,-0.09318,-0.00436
56.00000,-0.09335,-0.00526
56.10000,-0.09352,-0.00365
56.20000,-0.09369,-0.00149
56.30000,-0.09385,-0.00398
56.40000,-0.09402,-0.00593
56.50000,-0.09419,-0.00469
56.60000,-0.09435,-0.00815
56.70000,-0.09452,-0.00640
56.80000,-0.09469,-0.00295
56.90000,-0.09486,-0.00118
57.00000,-0.09502,-0.00395
57.10000,-0.09519,-0.00387
57.20000,-0.09536,-0.00556
57.30000,-0.09552,-0.00685
57.40000,-0.09568,-0.00867
57.50000,-0.09585,-0.01220
57.60000,-0.09602,-0.00832
57.70000,-0.09619,-0.00579
57.80000,-0.09635,-0.00330
57.90000,-0.09652,-0.00566
58.00000,-0.09669,-0.00643
58.10000,-0.09686,-0.00523
58.20000,-0.09702,-0.00697
58.30000,-0.09719,-0.00732
58.40000,-0.09736,-0.01311
58.50000,-0.09753,-0.00904
58.60000,-0.09769,-0.00528
58.70000,-0.09786,-0.00672
58.80000,-0.09801,-0.00769
58.90000,-0.09818,-0.00832
59.00000,-0.09834,-0.00748
59.10000,-0.09851,-0.01048
59.20000,-0.09868,-0.01328
59.30000,-0.09885,-0.01546
59.40000,-0.09903,-0.01467
59.50000,-0.09919,-0.01312
59.60000,-0.09935,-0.01376
59.70000,-0.09952,-0.01382
59.80000,-0.09969,-0.01551
59.90000,-0.09985,-0.01301
60.00000,-0.10001,-0.00980
60.10000,-0.10018,-0.01163
60.20000,-0.10034,-0.01627
60.30000,-0.10051,-0.01644
60.40000,-0.10068,-0.01522
60.50000,-0.10085,-0.01287
60.60000,-0.10103,-0.01277
60.70000,-0.10118,-0.01533
60.80000,-0.10135,-0.02020
60.90000,-0.10152,-0.03788
61.00000,-0.10168,-0.04752
61.10000,-0.10185,-0.07432
61.20000,-0.10202,-0.08964
61.30000,-0.10218,-0.11248
61.40000,-0.10234,-0.13836
61.50000,-0.10251,-0.16734
61.60000,-0.10268,-0.19118
61.70000,-0.10285,-0.22168
61.80000,-0.10302,-0.24410
61.90000,-0.10319,-0.26816
62.00000,-0.10335,-0.29289
62.10000,-0.10351,-0.30701
62.20000,-0.10369,-0.33082
62.30000,-0.10385,-0.34601
62.40000,-0.10402,-0.36602
62.50000,-0.10418,-0.38626
62.60000,-0.10435,-0.41012
62.70000,-0.10452,-0.43398
62.80000,-0.10469,-0.45362
62.90000,-0.10486,-0.47245
63.00000,-0.10503,-0.48472
63.10000,-0.10519,-0.49694
63.20000,-0.10535,-0.50824
63.30000,-0.10552,-0.52765
63.40000,-0.10568,-0.53713
63.50000,-0.10585,-0.55041
63.60000,-0.10602,-0.56618
63.70000,-0.10619,-0.58170
63.80000,-0.10635,-0.59400
63.90000,-0.10652,-0.59749
64.00000,-0.10668,-0.60664
64.10000,-0.10686,-0.61636
64.20000,-0.10703,-0.62876
64.30000,-0.10719,-0.63604
64.40000,-0.10735,-0.64048
64.50000,-0.10753,-0.65805
64.60000,-0.10769,-0.66562
64.70000,-0.10785,-0.67673
64.80000,-0.10802,-0.68609
64.90000,-0.10818,-0.70382
65.00000,-0.10834,-0.72282
65.10000,-0.10852,-0.74198
65.20000,-0.10868,-0.75443
65.30000,-0.10885,-0.77648
65.40000,-0.10902,-0.79548
65.50000,-0.10919,-0.33875
65.60000,-0.10936,-0.37332
65.70000,-0.10952,-0.39335
65.79999,-0.10969,-0.41697
65.90000,-0.10985,-0.45183
66.00000,-0.11002,-0.47910
66.10000,-0.11018,-0.50315
66.20000,-0.11035,-0.53331
66.29999,-0.11052,-0.55626
66.40000,-0.11069,-0.57649
66.50000,-0.11086,-0.59930
66.60000,-0.11102,-0.60670
66.70000,-0.11119,-0.61472
66.79999,-0.11136,-0.62831
66.90000,-0.11152,-0.63383
67.00000,-0.11169,-0.63785
67.10000,-0.11186,-0.63658
67.20000,-0.11202,-0.64471
67.29999,-0.11218,-0.66020
67.40000,-0.11235,-0.66494
67.50000,-0.11252,-0.65123
67.60000,-0.11269,-0.63794
67.70000,-0.11285,-0.63388
67.79999,-0.11302,-0.64062
67.90000,-0.11319,-0.63461
68.00000,-0.11335,-0.63378
68.10000,-0.11351,-0.64549
68.20000,-0.11368,-0.65063
68.29999,-0.11385,-0.67068
68.40000,-0.11401,-0.68086
68.50000,-0.11418,-0.67216
68.60000,-0.11434,-0.66193
68.70000,-0.11452,-0.67207
68.79999,-0.11468,-0.68253
68.90000,-0.11485,-0.69303
69.00000,-0.11501,-0.71679
69.10000,-0.11518,-0.73161
69.20000,-0.11535,-0.74854
69.29999,-0.11551,-0.76327
69.40000,-0.11569,-0.76944
69.50000,-0.11585,-0.78270
69.60000,-0.11602,-0.80017
69.70000,-0.11618,-0.80928
69.79999,-0.11634,-0.82766
69.90000,-0.11651,-0.85451
70.00000,-0.11668,-0.87870
70.10000,-0.11684,-0.90117
70.20000,-0.11701,-0.91711
70.29999,-0.11718,-0.89600
70.40000,-0.11735,-0.78653
70.50000,-0.11751,-0.78973
70.60000,-0.11768,-0.80212
70.70000,-0.11784,-0.82058
70.79999,-0.11800,-0.84610
70.90000,-0.11817,-0.87262
71.00000,-0.11834,-0.90449
71.10000,-0.11850,-0.92035
71.20000,-0.11867,-0.94598
71.29999,-0.11884,-0.97851
71.40000,-0.11901,-1.01619
71.50000,-0.11918,-1.04941
71.60000,-0.11935,-1.09269
71.70000,-0.11951,-1.12587
71.79999,-0.11968,-1.17024
71.90000,-0.11984,-1.19582
72.00000,-0.12000,-1.22938
72.05580,-0.12010,-1.25281
72.10000,-0.12017,-1.27609
72.20000,-0.12033,-1.31657
72.29999,-0.12051,-1.36968
72.40000,-0.12067,-1.41417
72.50000,-0.12084,-1.44178
72.60000,-0.12101,-1.48635
72.70000,-0.12118,-1.50617
72.79999,-0.12135,-1.53987
72.90000,-0.12151,-1.57655
73.00000,-0.12168,-1.61349
73.10000,-0.12184,-1.66149
73.20000,-0.12201,-1.70342
73.29999,-0.12217,-1.74579
73.40000,-0.12234,-1.81244
